#Magnetic Field (Oe),Voltage (V) 
-400.00, 0.489971 
-395.00, 0.489986 
-390.00, 0.490025 
-385.00, 0.490062 
-380.00, 0.490083 
-375.00, 0.490122 
-370.00, 0.490166 
-365.00, 0.490209 
-360.00, 0.490231 
-355.00, 0.490278 
-350.00, 0.490324 
-345.00, 0.490348 
-340.00, 0.490400 
-335.00, 0.490450 
-330.00, 0.490479 
-325.00, 0.490532 
-320.00, 0.490590 
-315.00, 0.490618 
-310.00, 0.490676 
-305.00, 0.490739 
-300.00, 0.490801 
-295.00, 0.490836 
-290.00, 0.490898 
-285.00, 0.490960 
-280.00, 0.491018 
-275.00, 0.491083 
-270.00, 0.491145 
-265.00, 0.491210 
-260.00, 0.491280 
-255.00, 0.491349 
-250.00, 0.491419 
-245.00, 0.491496 
-240.00, 0.491571 
-235.00, 0.491648 
-230.00, 0.491733 
-225.00, 0.491815 
-220.00, 0.491899 
-215.00, 0.491990 
-210.00, 0.492079 
-205.00, 0.492175 
-200.00, 0.492271 
-195.00, 0.492368 
-190.00, 0.492474 
-185.00, 0.492578 
-180.00, 0.492685 
-175.00, 0.492801 
-170.00, 0.492915 
-165.00, 0.493031 
-160.00, 0.493157 
-155.00, 0.493282 
-150.00, 0.493407 
-145.00, 0.493545 
-140.00, 0.493679 
-135.00, 0.493817 
-130.00, 0.493969 
-125.00, 0.494113 
-120.00, 0.494262 
-115.00, 0.494423 
-110.00, 0.494582 
-105.00, 0.494752 
-100.00, 0.494918 
-95.00, 0.495091 
-90.00, 0.495275 
-85.00, 0.495453 
-80.00, 0.495636 
-75.00, 0.495833 
-70.00, 0.496023 
-65.00, 0.496219 
-60.00, 0.496433 
-55.00, 0.496641 
-50.00, 0.496850 
-45.00, 0.497076 
-40.00, 0.497298 
-35.00, 0.497524 
-30.00, 0.497772 
-25.00, 0.498014 
-20.00, 0.498279 
-15.00, 0.498540 
-10.00, 0.498814 
-5.00, 0.499121 
-3.06E-14, 0.499427 
5.00, 0.499740 
10.00, 0.500244 
15.00, 0.500196 
20.00, 0.499948 
25.00, 0.499592 
30.00, 0.499281 
35.00, 0.498929 
40.00, 0.498529 
45.00, 0.498139 
50.00, 0.497556 
55.00, 0.497172 
60.00, 0.496775 
65.00, 0.496528 
70.00, 0.496177 
75.00, 0.495904 
80.00, 0.495691 
85.00, 0.495476 
90.00, 0.495249 
95.00, 0.495048 
100.00, 0.494792 
105.00, 0.494614 
110.00, 0.494431 
115.00, 0.494273 
120.00, 0.494105 
125.00, 0.493921 
130.00, 0.493749 
135.00, 0.493590 
140.00, 0.493441 
145.00, 0.493308 
150.00, 0.493173 
155.00, 0.493033 
160.00, 0.492910 
165.00, 0.492791 
170.00, 0.492657 
175.00, 0.492541 
180.00, 0.492416 
185.00, 0.492307 
190.00, 0.492202 
195.00, 0.492097 
200.00, 0.492001 
205.00, 0.491906 
210.00, 0.491811 
215.00, 0.491705 
220.00, 0.491619 
225.00, 0.491532 
230.00, 0.491422 
235.00, 0.491344 
240.00, 0.491259 
245.00, 0.491187 
250.00, 0.491113 
255.00, 0.491037 
260.00, 0.490970 
265.00, 0.490903 
270.00, 0.490836 
275.00, 0.490775 
280.00, 0.490716 
285.00, 0.490653 
290.00, 0.490598 
295.00, 0.490542 
300.00, 0.490490 
305.00, 0.490427 
310.00, 0.490395 
315.00, 0.490337 
320.00, 0.490283 
325.00, 0.490255 
330.00, 0.490200 
335.00, 0.490150 
340.00, 0.490094 
345.00, 0.490070 
350.00, 0.490020 
355.00, 0.489975 
360.00, 0.489953 
365.00, 0.489909 
370.00, 0.489867 
375.00, 0.489846 
380.00, 0.489805 
385.00, 0.489767 
390.00, 0.489746 
395.00, 0.489710 
400.00, 0.489672 
405.00, 0.489636 
405.00, 0.489634 
400.00, 0.489665 
395.00, 0.489699 
390.00, 0.489733 
385.00, 0.489751 
380.00, 0.489786 
375.00, 0.489825 
370.00, 0.489844 
365.00, 0.489882 
360.00, 0.489924 
355.00, 0.489944 
350.00, 0.489986 
345.00, 0.490032 
340.00, 0.490054 
335.00, 0.490101 
330.00, 0.490149 
325.00, 0.490200 
320.00, 0.490225 
315.00, 0.490276 
310.00, 0.490332 
305.00, 0.490358 
300.00, 0.490417 
295.00, 0.490466 
290.00, 0.490519 
285.00, 0.490572 
280.00, 0.490629 
275.00, 0.490685 
270.00, 0.490741 
265.00, 0.490803 
260.00, 0.490864 
255.00, 0.490927 
250.00, 0.490995 
245.00, 0.491061 
240.00, 0.491129 
235.00, 0.491204 
230.00, 0.491276 
225.00, 0.491352 
220.00, 0.491433 
215.00, 0.491512 
210.00, 0.491594 
205.00, 0.491683 
200.00, 0.491771 
195.00, 0.491862 
190.00, 0.491960 
185.00, 0.492058 
180.00, 0.492156 
175.00, 0.492265 
170.00, 0.492371 
165.00, 0.492486 
160.00, 0.492598 
155.00, 0.492714 
150.00, 0.492841 
145.00, 0.492965 
140.00, 0.493092 
135.00, 0.493230 
130.00, 0.493365 
125.00, 0.493504 
120.00, 0.493657 
115.00, 0.493803 
110.00, 0.493954 
105.00, 0.494119 
100.00, 0.494281 
95.00, 0.494455 
90.00, 0.494624 
85.00, 0.494801 
80.00, 0.494994 
75.00, 0.495181 
70.00, 0.495370 
65.00, 0.495580 
60.00, 0.495783 
55.00, 0.495990 
50.00, 0.496218 
45.00, 0.496441 
40.00, 0.496672 
35.00, 0.496921 
30.00, 0.497171 
25.00, 0.497430 
20.00, 0.497716 
15.00, 0.498003 
10.00, 0.498311 
5.00, 0.498666 
-3.06E-14, 0.499018 
-5.00, 0.499463 
-10.00, 0.500911 
-15.00, 0.500425 
-20.00, 0.500037 
-25.00, 0.499721 
-30.00, 0.499356 
-35.00, 0.498974 
-40.00, 0.498612 
-45.00, 0.498207 
-50.00, 0.497834 
-55.00, 0.497508 
-60.00, 0.497119 
-65.00, 0.496782 
-70.00, 0.496462 
-75.00, 0.496215 
-80.00, 0.495976 
-85.00, 0.495769 
-90.00, 0.495544 
-95.00, 0.495298 
-100.00, 0.495085 
-105.00, 0.494878 
-110.00, 0.494679 
-115.00, 0.494500 
-120.00, 0.494309 
-125.00, 0.494148 
-130.00, 0.493985 
-135.00, 0.493820 
-140.00, 0.493672 
-145.00, 0.493528 
-150.00, 0.493379 
-155.00, 0.493244 
-160.00, 0.493109 
-165.00, 0.492976 
-170.00, 0.492851 
-175.00, 0.492730 
-180.00, 0.492608 
-185.00, 0.492483 
-190.00, 0.492374 
-195.00, 0.492260 
-200.00, 0.492157 
-205.00, 0.492055 
-210.00, 0.491953 
-215.00, 0.491859 
-220.00, 0.491762 
-225.00, 0.491674 
-230.00, 0.491588 
-235.00, 0.491496 
-240.00, 0.491414 
-245.00, 0.491335 
-250.00, 0.491253 
-255.00, 0.491180 
-260.00, 0.491108 
-265.00, 0.491030 
-270.00, 0.490963 
-275.00, 0.490897 
-280.00, 0.490823 
-285.00, 0.490760 
-290.00, 0.490689 
-295.00, 0.490617 
-300.00, 0.490579 
-305.00, 0.490513 
-310.00, 0.490440 
-315.00, 0.490379 
-320.00, 0.490345 
-325.00, 0.490282 
-330.00, 0.490225 
-335.00, 0.490194 
-340.00, 0.490140 
-345.00, 0.490085 
-350.00, 0.490059 
-355.00, 0.490010 
-360.00, 0.489959 
-365.00, 0.489935 
-370.00, 0.489889 
-375.00, 0.489843 
-380.00, 0.489800 
-385.00, 0.489772 
-390.00, 0.489730 
-395.00, 0.489688 
-400.00, 0.489667 
