E(MeV)  t(s)
111.125 2.97562e-09
115.591 7.21848e-09
120.058 1.22063e-08
124.525 1.77479e-08
128.992 2.37321e-08
133.458 3.00838e-08
137.925 3.67478e-08
142.392 4.36818e-08
146.858 5.08523e-08
151.325 5.82317e-08
155.792 6.57972e-08
160.259 7.35298e-08
164.725 8.1413e-08
169.192 8.94327e-08
173.659 9.75767e-08
178.125 1.05834e-07
182.592 1.14196e-07
187.059 1.22653e-07
191.525 1.31199e-07
195.992 1.39826e-07
200.459 1.48529e-07
204.926 1.57302e-07
209.392 1.66141e-07
213.859 1.75041e-07
218.326 1.83997e-07
222.792 1.93007e-07
227.259 2.02068e-07
231.726 2.11175e-07
236.193 2.20326e-07
240.659 2.29519e-07
245.126 2.38752e-07
249.593 2.48021e-07
254.059 2.57325e-07
258.526 2.66663e-07
262.993 2.76031e-07
267.46 2.8543e-07
271.926 2.94857e-07
276.393 3.0431e-07
280.86 3.1379e-07
285.326 3.23293e-07
289.793 3.3282e-07
294.26 3.42368e-07
298.727 3.51938e-07
303.193 3.61528e-07
307.66 3.71137e-07
312.127 3.80765e-07
316.593 3.9041e-07
321.06 4.00072e-07
325.527 4.0975e-07
329.993 4.19444e-07
334.46 4.29152e-07
338.927 4.38875e-07
343.394 4.48611e-07
347.86 4.58361e-07
352.327 4.68124e-07
356.794 4.77898e-07
361.26 4.87685e-07
365.727 4.97482e-07
370.194 5.07291e-07
374.661 5.1711e-07
379.127 5.2694e-07
383.594 5.36779e-07
388.061 5.46628e-07
392.527 5.56485e-07
396.994 5.66352e-07
401.461 5.76227e-07
405.928 5.86111e-07
410.394 5.96002e-07
414.861 6.05902e-07
419.328 6.15808e-07
423.794 6.25722e-07
428.261 6.35644e-07
432.728 6.45572e-07
437.195 6.55506e-07
441.661 6.65447e-07
446.128 6.75395e-07
450.595 6.85348e-07
455.061 6.95308e-07
459.528 7.05273e-07
463.995 7.15243e-07
468.462 7.25219e-07
472.928 7.35201e-07
477.395 7.45187e-07
481.862 7.55179e-07
486.328 7.65175e-07
490.795 7.75176e-07
495.262 7.85182e-07
499.728 7.95192e-07
504.195 8.05206e-07
508.662 8.15225e-07
513.129 8.25248e-07
517.595 8.35275e-07
522.062 8.45306e-07
526.529 8.55341e-07
530.995 8.65379e-07
535.462 8.75422e-07
539.929 8.85468e-07
544.396 8.95517e-07
548.862 9.0557e-07
553.329 9.15626e-07
557.796 9.25686e-07
562.262 9.35748e-07
566.729 9.45814e-07
571.196 9.55883e-07
575.663 9.65955e-07
580.129 9.7603e-07
584.596 9.86107e-07
589.063 9.96188e-07
593.529 1.00627e-06
597.996 1.01636e-06
602.463 1.02645e-06
606.93 1.03654e-06
611.396 1.04663e-06
615.863 1.05673e-06
620.33 1.06683e-06
624.796 1.07693e-06
629.263 1.08703e-06
633.73 1.09714e-06
638.196 1.10724e-06
642.663 1.11735e-06
647.13 1.12747e-06
651.597 1.13758e-06
656.063 1.1477e-06
660.53 1.15782e-06
664.997 1.16794e-06
669.463 1.17806e-06
673.93 1.18818e-06
678.397 1.19831e-06
682.864 1.20844e-06
687.33 1.21857e-06
691.797 1.2287e-06
696.264 1.23883e-06
700.73 1.24897e-06
705.197 1.25911e-06
709.664 1.26925e-06
714.131 1.27939e-06
718.597 1.28953e-06
723.064 1.29967e-06
727.531 1.30982e-06
731.997 1.31997e-06
736.464 1.33011e-06
740.931 1.34026e-06
745.398 1.35042e-06
749.864 1.36057e-06
754.331 1.37072e-06
758.798 1.38088e-06
763.264 1.39104e-06
767.731 1.4012e-06
772.198 1.41136e-06
776.664 1.42152e-06
781.131 1.43168e-06
785.598 1.44184e-06
790.065 1.45201e-06
794.531 1.46218e-06
798.998 1.47234e-06
803.465 1.48251e-06
807.931 1.49268e-06
812.398 1.50286e-06
816.865 1.51303e-06
821.332 1.5232e-06
825.798 1.53338e-06
830.265 1.54355e-06
834.732 1.55373e-06
839.198 1.56391e-06
843.665 1.57409e-06
848.132 1.58427e-06
852.599 1.59445e-06
857.065 1.60463e-06
861.532 1.61482e-06
865.999 1.625e-06
870.465 1.63519e-06
874.932 1.64538e-06
879.399 1.65556e-06
883.866 1.66575e-06
888.332 1.67594e-06
892.799 1.68613e-06
897.266 1.69633e-06
901.732 1.70652e-06
906.199 1.71671e-06
910.666 1.72691e-06
915.133 1.7371e-06
919.599 1.7473e-06
924.066 1.7575e-06
928.533 1.76769e-06
932.999 1.77789e-06
937.466 1.78809e-06
941.933 1.79829e-06
946.399 1.80849e-06
950.866 1.8187e-06
955.333 1.8289e-06
959.8 1.8391e-06
964.266 1.84931e-06
968.733 1.85951e-06
973.2 1.86972e-06
977.666 1.87993e-06
982.133 1.89014e-06
986.6 1.90035e-06
991.067 1.91055e-06
995.533 1.92076e-06
1000 1.93098e-06
