#Magnetic Field (Oe),Voltage (V) 
-400.00, 0.169579 
-395.00, 0.169579 
-390.00, 0.169581 
-385.00, 0.169582 
-380.00, 0.169583 
-375.00, 0.169584 
-370.00, 0.169586 
-365.00, 0.169587 
-360.00, 0.169588 
-355.00, 0.169589 
-350.00, 0.169591 
-345.00, 0.169593 
-340.00, 0.169595 
-335.00, 0.169596 
-330.00, 0.169597 
-325.00, 0.169599 
-320.00, 0.169601 
-315.00, 0.169602 
-310.00, 0.169604 
-305.00, 0.169606 
-300.00, 0.169609 
-295.00, 0.169610 
-290.00, 0.169612 
-285.00, 0.169614 
-280.00, 0.169616 
-275.00, 0.169619 
-270.00, 0.169621 
-265.00, 0.169623 
-260.00, 0.169625 
-255.00, 0.169627 
-250.00, 0.169629 
-245.00, 0.169631 
-240.00, 0.169634 
-235.00, 0.169636 
-230.00, 0.169639 
-225.00, 0.169641 
-220.00, 0.169644 
-215.00, 0.169647 
-210.00, 0.169650 
-205.00, 0.169653 
-200.00, 0.169656 
-195.00, 0.169660 
-190.00, 0.169663 
-185.00, 0.169666 
-180.00, 0.169670 
-175.00, 0.169674 
-170.00, 0.169678 
-165.00, 0.169682 
-160.00, 0.169686 
-155.00, 0.169691 
-150.00, 0.169696 
-145.00, 0.169701 
-140.00, 0.169707 
-135.00, 0.169712 
-130.00, 0.169718 
-125.00, 0.169724 
-120.00, 0.169731 
-115.00, 0.169738 
-110.00, 0.169746 
-105.00, 0.169754 
-100.00, 0.169763 
-95.00, 0.169773 
-90.00, 0.169784 
-85.00, 0.169794 
-80.00, 0.169806 
-75.00, 0.169821 
-70.00, 0.169836 
-65.00, 0.169852 
-60.00, 0.169871 
-55.00, 0.169893 
-50.00, 0.169918 
-45.00, 0.169948 
-40.00, 0.169984 
-35.00, 0.170025 
-30.00, 0.170078 
-25.00, 0.170147 
-20.00, 0.170240 
-15.00, 0.170366 
-10.00, 0.170554 
-5.00, 0.170985 
-3.06E-14, 0.172054 
5.00, 0.173230 
10.00, 0.174502 
15.00, 0.175610 
20.00, 0.176548 
25.00, 0.177238 
30.00, 0.177598 
35.00, 0.177790 
40.00, 0.177882 
45.00, 0.177949 
50.00, 0.177979 
55.00, 0.177998 
60.00, 0.178011 
65.00, 0.178021 
70.00, 0.178027 
75.00, 0.178031 
80.00, 0.178034 
85.00, 0.178035 
90.00, 0.178036 
95.00, 0.178036 
100.00, 0.178035 
105.00, 0.178034 
110.00, 0.178032 
115.00, 0.178030 
120.00, 0.178027 
125.00, 0.178023 
130.00, 0.178020 
135.00, 0.178015 
140.00, 0.178011 
145.00, 0.178005 
150.00, 0.177999 
155.00, 0.177992 
160.00, 0.177985 
165.00, 0.177976 
170.00, 0.177968 
175.00, 0.177958 
180.00, 0.177946 
185.00, 0.177934 
190.00, 0.177921 
195.00, 0.177906 
200.00, 0.177889 
205.00, 0.177871 
210.00, 0.177850 
215.00, 0.177826 
220.00, 0.177800 
225.00, 0.177767 
230.00, 0.177733 
235.00, 0.177693 
240.00, 0.177644 
245.00, 0.177588 
250.00, 0.177518 
255.00, 0.177426 
260.00, 0.177324 
265.00, 0.177198 
270.00, 0.177039 
275.00, 0.176839 
280.00, 0.176587 
285.00, 0.176259 
290.00, 0.175895 
295.00, 0.175465 
300.00, 0.174992 
305.00, 0.174420 
310.00, 0.174197 
315.00, 0.173697 
320.00, 0.173175 
325.00, 0.172917 
330.00, 0.172491 
335.00, 0.172150 
340.00, 0.171873 
345.00, 0.171771 
350.00, 0.171547 
355.00, 0.171372 
360.00, 0.171303 
365.00, 0.171172 
370.00, 0.171065 
375.00, 0.171013 
380.00, 0.170930 
385.00, 0.170853 
390.00, 0.170807 
395.00, 0.170736 
400.00, 0.170662 
405.00, 0.170609 
405.00, 0.170596 
400.00, 0.170627 
395.00, 0.170662 
390.00, 0.170700 
385.00, 0.170720 
380.00, 0.170761 
375.00, 0.170807 
370.00, 0.170832 
365.00, 0.170881 
360.00, 0.170942 
355.00, 0.170973 
350.00, 0.171037 
345.00, 0.171105 
340.00, 0.171143 
335.00, 0.171235 
330.00, 0.171323 
325.00, 0.171431 
320.00, 0.171487 
315.00, 0.171610 
310.00, 0.171770 
305.00, 0.171851 
300.00, 0.172047 
295.00, 0.172220 
290.00, 0.172437 
285.00, 0.172658 
280.00, 0.172928 
275.00, 0.173225 
270.00, 0.173536 
265.00, 0.173923 
260.00, 0.174322 
255.00, 0.174740 
250.00, 0.175145 
245.00, 0.175563 
240.00, 0.175982 
235.00, 0.176365 
230.00, 0.176682 
225.00, 0.176878 
220.00, 0.177091 
215.00, 0.177246 
210.00, 0.177354 
205.00, 0.177447 
200.00, 0.177520 
195.00, 0.177575 
190.00, 0.177622 
185.00, 0.177667 
180.00, 0.177704 
175.00, 0.177733 
170.00, 0.177759 
165.00, 0.177784 
160.00, 0.177802 
155.00, 0.177818 
150.00, 0.177834 
145.00, 0.177849 
140.00, 0.177865 
135.00, 0.177878 
130.00, 0.177891 
125.00, 0.177901 
120.00, 0.177910 
115.00, 0.177919 
110.00, 0.177927 
105.00, 0.177932 
100.00, 0.177939 
95.00, 0.177946 
90.00, 0.177952 
85.00, 0.177955 
80.00, 0.177958 
75.00, 0.177959 
70.00, 0.177959 
65.00, 0.177957 
60.00, 0.177955 
55.00, 0.177948 
50.00, 0.177947 
45.00, 0.177927 
40.00, 0.177895 
35.00, 0.177832 
30.00, 0.177701 
25.00, 0.177391 
20.00, 0.176757 
15.00, 0.175901 
10.00, 0.174880 
5.00, 0.173617 
-3.06E-14, 0.172386 
-5.00, 0.171244 
-10.00, 0.170764 
-15.00, 0.170517 
-20.00, 0.170370 
-25.00, 0.170260 
-30.00, 0.170185 
-35.00, 0.170124 
-40.00, 0.170078 
-45.00, 0.170038 
-50.00, 0.170004 
-55.00, 0.169975 
-60.00, 0.169949 
-65.00, 0.169923 
-70.00, 0.169905 
-75.00, 0.169889 
-80.00, 0.169873 
-85.00, 0.169857 
-90.00, 0.169842 
-95.00, 0.169830 
-100.00, 0.169820 
-105.00, 0.169811 
-110.00, 0.169802 
-115.00, 0.169794 
-120.00, 0.169786 
-125.00, 0.169779 
-130.00, 0.169772 
-135.00, 0.169765 
-140.00, 0.169755 
-145.00, 0.169750 
-150.00, 0.169744 
-155.00, 0.169739 
-160.00, 0.169733 
-165.00, 0.169728 
-170.00, 0.169723 
-175.00, 0.169720 
-180.00, 0.169715 
-185.00, 0.169711 
-190.00, 0.169707 
-195.00, 0.169704 
-200.00, 0.169701 
-205.00, 0.169698 
-210.00, 0.169694 
-215.00, 0.169691 
-220.00, 0.169684 
-225.00, 0.169682 
-230.00, 0.169679 
-235.00, 0.169676 
-240.00, 0.169674 
-245.00, 0.169671 
-250.00, 0.169669 
-255.00, 0.169666 
-260.00, 0.169664 
-265.00, 0.169662 
-270.00, 0.169660 
-275.00, 0.169657 
-280.00, 0.169656 
-285.00, 0.169651 
-290.00, 0.169648 
-295.00, 0.169645 
-300.00, 0.169642 
-305.00, 0.169640 
-310.00, 0.169638 
-315.00, 0.169635 
-320.00, 0.169635 
-325.00, 0.169631 
-330.00, 0.169629 
-335.00, 0.169628 
-340.00, 0.169627 
-345.00, 0.169625 
-350.00, 0.169625 
-355.00, 0.169623 
-360.00, 0.169620 
-365.00, 0.169620 
-370.00, 0.169619 
-375.00, 0.169616 
-380.00, 0.169615 
-385.00, 0.169614 
-390.00, 0.169613 
-395.00, 0.169612 
-400.00, 0.169610 
