#Magnetic Field (Oe),Voltage (V) 
-400.00, 0.245694 
-395.00, 0.245738 
-390.00, 0.245856 
-385.00, 0.245972 
-380.00, 0.246043 
-375.00, 0.246174 
-370.00, 0.246324 
-365.00, 0.246478 
-360.00, 0.246558 
-355.00, 0.246735 
-350.00, 0.246908 
-345.00, 0.247003 
-340.00, 0.247201 
-335.00, 0.247416 
-330.00, 0.247533 
-325.00, 0.247760 
-320.00, 0.248015 
-315.00, 0.248148 
-310.00, 0.248410 
-305.00, 0.248688 
-300.00, 0.248953 
-295.00, 0.249110 
-290.00, 0.249373 
-285.00, 0.249611 
-280.00, 0.249830 
-275.00, 0.250049 
-270.00, 0.250237 
-265.00, 0.250413 
-260.00, 0.250600 
-255.00, 0.250757 
-250.00, 0.250922 
-245.00, 0.251071 
-240.00, 0.251213 
-235.00, 0.251340 
-230.00, 0.251474 
-225.00, 0.251580 
-220.00, 0.251691 
-215.00, 0.251794 
-210.00, 0.251890 
-205.00, 0.251989 
-200.00, 0.252082 
-195.00, 0.252168 
-190.00, 0.252251 
-185.00, 0.252330 
-180.00, 0.252404 
-175.00, 0.252481 
-170.00, 0.252552 
-165.00, 0.252617 
-160.00, 0.252684 
-155.00, 0.252743 
-150.00, 0.252803 
-145.00, 0.252863 
-140.00, 0.252915 
-135.00, 0.252965 
-130.00, 0.253017 
-125.00, 0.253060 
-120.00, 0.253102 
-115.00, 0.253142 
-110.00, 0.253175 
-105.00, 0.253208 
-100.00, 0.253233 
-95.00, 0.253253 
-90.00, 0.253272 
-85.00, 0.253281 
-80.00, 0.253284 
-75.00, 0.253275 
-70.00, 0.253260 
-65.00, 0.253231 
-60.00, 0.253179 
-55.00, 0.253118 
-50.00, 0.253031 
-45.00, 0.252902 
-40.00, 0.252731 
-35.00, 0.252493 
-30.00, 0.252127 
-25.00, 0.251619 
-20.00, 0.250800 
-15.00, 0.249592 
-10.00, 0.247954 
-5.00, 0.246380 
-3.06E-14, 0.245370 
5.00, 0.244807 
10.00, 0.244428 
15.00, 0.244271 
20.00, 0.244245 
25.00, 0.244265 
30.00, 0.244302 
35.00, 0.244343 
40.00, 0.244390 
45.00, 0.244421 
50.00, 0.244442 
55.00, 0.244459 
60.00, 0.244470 
65.00, 0.244473 
70.00, 0.244477 
75.00, 0.244475 
80.00, 0.244468 
85.00, 0.244460 
90.00, 0.244451 
95.00, 0.244441 
100.00, 0.244426 
105.00, 0.244412 
110.00, 0.244396 
115.00, 0.244379 
120.00, 0.244358 
125.00, 0.244339 
130.00, 0.244320 
135.00, 0.244303 
140.00, 0.244281 
145.00, 0.244258 
150.00, 0.244239 
155.00, 0.244213 
160.00, 0.244191 
165.00, 0.244169 
170.00, 0.244145 
175.00, 0.244125 
180.00, 0.244102 
185.00, 0.244076 
190.00, 0.244053 
195.00, 0.244029 
200.00, 0.244009 
205.00, 0.243987 
210.00, 0.243963 
215.00, 0.243942 
220.00, 0.243919 
225.00, 0.243898 
230.00, 0.243876 
235.00, 0.243852 
240.00, 0.243828 
245.00, 0.243809 
250.00, 0.243788 
255.00, 0.243766 
260.00, 0.243746 
265.00, 0.243726 
270.00, 0.243706 
275.00, 0.243686 
280.00, 0.243668 
285.00, 0.243646 
290.00, 0.243625 
295.00, 0.243605 
300.00, 0.243586 
305.00, 0.243564 
310.00, 0.243554 
315.00, 0.243534 
320.00, 0.243514 
325.00, 0.243505 
330.00, 0.243486 
335.00, 0.243466 
340.00, 0.243449 
345.00, 0.243439 
350.00, 0.243423 
355.00, 0.243407 
360.00, 0.243400 
365.00, 0.243382 
370.00, 0.243369 
375.00, 0.243360 
380.00, 0.243346 
385.00, 0.243332 
390.00, 0.243325 
395.00, 0.243311 
400.00, 0.243296 
405.00, 0.243283 
405.00, 0.243284 
400.00, 0.243294 
395.00, 0.243308 
390.00, 0.243322 
385.00, 0.243330 
380.00, 0.243344 
375.00, 0.243357 
370.00, 0.243366 
365.00, 0.243381 
360.00, 0.243396 
355.00, 0.243402 
350.00, 0.243418 
345.00, 0.243436 
340.00, 0.243441 
335.00, 0.243459 
330.00, 0.243475 
325.00, 0.243494 
320.00, 0.243503 
315.00, 0.243521 
310.00, 0.243539 
305.00, 0.243550 
300.00, 0.243568 
295.00, 0.243586 
290.00, 0.243603 
285.00, 0.243624 
280.00, 0.243645 
275.00, 0.243663 
270.00, 0.243680 
265.00, 0.243702 
260.00, 0.243721 
255.00, 0.243741 
250.00, 0.243762 
245.00, 0.243781 
240.00, 0.243805 
235.00, 0.243827 
230.00, 0.243849 
225.00, 0.243868 
220.00, 0.243892 
215.00, 0.243915 
210.00, 0.243937 
205.00, 0.243964 
200.00, 0.243988 
195.00, 0.244013 
190.00, 0.244036 
185.00, 0.244062 
180.00, 0.244084 
175.00, 0.244109 
170.00, 0.244135 
165.00, 0.244161 
160.00, 0.244183 
155.00, 0.244206 
150.00, 0.244230 
145.00, 0.244253 
140.00, 0.244277 
135.00, 0.244299 
130.00, 0.244321 
125.00, 0.244343 
120.00, 0.244364 
115.00, 0.244385 
110.00, 0.244403 
105.00, 0.244422 
100.00, 0.244441 
95.00, 0.244456 
90.00, 0.244471 
85.00, 0.244483 
80.00, 0.244492 
75.00, 0.244498 
70.00, 0.244500 
65.00, 0.244493 
60.00, 0.244489 
55.00, 0.244478 
50.00, 0.244458 
45.00, 0.244439 
40.00, 0.244411 
35.00, 0.244373 
30.00, 0.244327 
25.00, 0.244286 
20.00, 0.244262 
15.00, 0.244261 
10.00, 0.244388 
5.00, 0.244738 
-3.06E-14, 0.245287 
-5.00, 0.246312 
-10.00, 0.247891 
-15.00, 0.249581 
-20.00, 0.250790 
-25.00, 0.251631 
-30.00, 0.252139 
-35.00, 0.252504 
-40.00, 0.252742 
-45.00, 0.252911 
-50.00, 0.253043 
-55.00, 0.253134 
-60.00, 0.253197 
-65.00, 0.253242 
-70.00, 0.253271 
-75.00, 0.253289 
-80.00, 0.253297 
-85.00, 0.253296 
-90.00, 0.253290 
-95.00, 0.253272 
-100.00, 0.253254 
-105.00, 0.253229 
-110.00, 0.253197 
-115.00, 0.253166 
-120.00, 0.253128 
-125.00, 0.253091 
-130.00, 0.253048 
-135.00, 0.252999 
-140.00, 0.252949 
-145.00, 0.252896 
-150.00, 0.252839 
-155.00, 0.252783 
-160.00, 0.252725 
-165.00, 0.252660 
-170.00, 0.252594 
-175.00, 0.252527 
-180.00, 0.252453 
-185.00, 0.252379 
-190.00, 0.252303 
-195.00, 0.252223 
-200.00, 0.252141 
-205.00, 0.252056 
-210.00, 0.251965 
-215.00, 0.251875 
-220.00, 0.251774 
-225.00, 0.251676 
-230.00, 0.251572 
-235.00, 0.251461 
-240.00, 0.251350 
-245.00, 0.251232 
-250.00, 0.251099 
-255.00, 0.250974 
-260.00, 0.250841 
-265.00, 0.250689 
-270.00, 0.250541 
-275.00, 0.250389 
-280.00, 0.250218 
-285.00, 0.250046 
-290.00, 0.249850 
-295.00, 0.249633 
-300.00, 0.249501 
-305.00, 0.249248 
-310.00, 0.248997 
-315.00, 0.248738 
-320.00, 0.248598 
-325.00, 0.248317 
-330.00, 0.248047 
-335.00, 0.247903 
-340.00, 0.247631 
-345.00, 0.247355 
-350.00, 0.247233 
-355.00, 0.247018 
-360.00, 0.246785 
-365.00, 0.246651 
-370.00, 0.246449 
-375.00, 0.246250 
-380.00, 0.246073 
-385.00, 0.245987 
-390.00, 0.245823 
-395.00, 0.245679 
-400.00, 0.245615 
