#Magnetic Field (Oe),Voltage (V) 
-400.00, 0.135979 
-395.00, 0.135983 
-390.00, 0.135995 
-385.00, 0.136007 
-380.00, 0.136013 
-375.00, 0.136026 
-370.00, 0.136039 
-365.00, 0.136053 
-360.00, 0.136060 
-355.00, 0.136074 
-350.00, 0.136089 
-345.00, 0.136096 
-340.00, 0.136112 
-335.00, 0.136127 
-330.00, 0.136136 
-325.00, 0.136152 
-320.00, 0.136170 
-315.00, 0.136178 
-310.00, 0.136196 
-305.00, 0.136215 
-300.00, 0.136234 
-295.00, 0.136245 
-290.00, 0.136263 
-285.00, 0.136281 
-280.00, 0.136298 
-275.00, 0.136317 
-270.00, 0.136336 
-265.00, 0.136355 
-260.00, 0.136376 
-255.00, 0.136396 
-250.00, 0.136416 
-245.00, 0.136434 
-240.00, 0.136459 
-235.00, 0.136482 
-230.00, 0.136506 
-225.00, 0.136529 
-220.00, 0.136552 
-215.00, 0.136579 
-210.00, 0.136603 
-205.00, 0.136630 
-200.00, 0.136656 
-195.00, 0.136683 
-190.00, 0.136712 
-185.00, 0.136740 
-180.00, 0.136768 
-175.00, 0.136800 
-170.00, 0.136829 
-165.00, 0.136860 
-160.00, 0.136893 
-155.00, 0.136924 
-150.00, 0.136957 
-145.00, 0.136993 
-140.00, 0.137027 
-135.00, 0.137061 
-130.00, 0.137098 
-125.00, 0.137134 
-120.00, 0.137170 
-115.00, 0.137209 
-110.00, 0.137246 
-105.00, 0.137286 
-100.00, 0.137324 
-95.00, 0.137363 
-90.00, 0.137404 
-85.00, 0.137443 
-80.00, 0.137483 
-75.00, 0.137524 
-70.00, 0.137563 
-65.00, 0.137601 
-60.00, 0.137641 
-55.00, 0.137678 
-50.00, 0.137713 
-45.00, 0.137748 
-40.00, 0.137779 
-35.00, 0.137806 
-30.00, 0.137828 
-25.00, 0.137841 
-20.00, 0.137841 
-15.00, 0.137821 
-10.00, 0.137767 
-5.00, 0.137634 
-3.06E-14, 0.137303 
5.00, 0.136519 
10.00, 0.136985 
15.00, 0.137310 
20.00, 0.137496 
25.00, 0.137549 
30.00, 0.137574 
35.00, 0.137583 
40.00, 0.137580 
45.00, 0.137570 
50.00, 0.137554 
55.00, 0.137531 
60.00, 0.137507 
65.00, 0.137479 
70.00, 0.137448 
75.00, 0.137417 
80.00, 0.137385 
85.00, 0.137351 
90.00, 0.137318 
95.00, 0.137284 
100.00, 0.137249 
105.00, 0.137215 
110.00, 0.137179 
115.00, 0.137145 
120.00, 0.137112 
125.00, 0.137077 
130.00, 0.137045 
135.00, 0.137012 
140.00, 0.136979 
145.00, 0.136948 
150.00, 0.136917 
155.00, 0.136885 
160.00, 0.136855 
165.00, 0.136826 
170.00, 0.136795 
175.00, 0.136767 
180.00, 0.136738 
185.00, 0.136711 
190.00, 0.136684 
195.00, 0.136657 
200.00, 0.136632 
205.00, 0.136607 
210.00, 0.136581 
215.00, 0.136557 
220.00, 0.136534 
225.00, 0.136510 
230.00, 0.136488 
235.00, 0.136466 
240.00, 0.136444 
245.00, 0.136423 
250.00, 0.136403 
255.00, 0.136383 
260.00, 0.136364 
265.00, 0.136345 
270.00, 0.136326 
275.00, 0.136308 
280.00, 0.136291 
285.00, 0.136273 
290.00, 0.136256 
295.00, 0.136239 
300.00, 0.136223 
305.00, 0.136204 
310.00, 0.136195 
315.00, 0.136177 
320.00, 0.136161 
325.00, 0.136152 
330.00, 0.136135 
335.00, 0.136120 
340.00, 0.136104 
345.00, 0.136096 
350.00, 0.136081 
355.00, 0.136067 
360.00, 0.136060 
365.00, 0.136046 
370.00, 0.136033 
375.00, 0.136027 
380.00, 0.136013 
385.00, 0.136001 
390.00, 0.135994 
395.00, 0.135983 
400.00, 0.135971 
405.00, 0.135959 
405.00, 0.135959 
400.00, 0.135970 
395.00, 0.135982 
390.00, 0.135994 
385.00, 0.136001 
380.00, 0.136013 
375.00, 0.136027 
370.00, 0.136033 
365.00, 0.136046 
360.00, 0.136060 
355.00, 0.136067 
350.00, 0.136081 
345.00, 0.136096 
340.00, 0.136104 
335.00, 0.136119 
330.00, 0.136135 
325.00, 0.136151 
320.00, 0.136159 
315.00, 0.136176 
310.00, 0.136194 
305.00, 0.136203 
300.00, 0.136222 
295.00, 0.136238 
290.00, 0.136255 
285.00, 0.136271 
280.00, 0.136289 
275.00, 0.136306 
270.00, 0.136324 
265.00, 0.136343 
260.00, 0.136362 
255.00, 0.136381 
250.00, 0.136401 
245.00, 0.136421 
240.00, 0.136441 
235.00, 0.136463 
230.00, 0.136484 
225.00, 0.136506 
220.00, 0.136530 
215.00, 0.136553 
210.00, 0.136577 
205.00, 0.136601 
200.00, 0.136627 
195.00, 0.136651 
190.00, 0.136678 
185.00, 0.136705 
180.00, 0.136731 
175.00, 0.136760 
170.00, 0.136788 
165.00, 0.136818 
160.00, 0.136847 
155.00, 0.136877 
150.00, 0.136908 
145.00, 0.136939 
140.00, 0.136969 
135.00, 0.137002 
130.00, 0.137034 
125.00, 0.137066 
120.00, 0.137101 
115.00, 0.137134 
110.00, 0.137167 
105.00, 0.137202 
100.00, 0.137236 
95.00, 0.137271 
90.00, 0.137304 
85.00, 0.137337 
80.00, 0.137371 
75.00, 0.137403 
70.00, 0.137433 
65.00, 0.137463 
60.00, 0.137490 
55.00, 0.137516 
50.00, 0.137537 
45.00, 0.137554 
40.00, 0.137565 
35.00, 0.137567 
30.00, 0.137558 
25.00, 0.137532 
20.00, 0.137481 
15.00, 0.137395 
10.00, 0.137250 
5.00, 0.136964 
-3.06E-14, 0.136483 
-5.00, 0.137184 
-10.00, 0.137778 
-15.00, 0.137859 
-20.00, 0.137884 
-25.00, 0.137884 
-30.00, 0.137872 
-35.00, 0.137850 
-40.00, 0.137823 
-45.00, 0.137793 
-50.00, 0.137757 
-55.00, 0.137721 
-60.00, 0.137683 
-65.00, 0.137643 
-70.00, 0.137604 
-75.00, 0.137565 
-80.00, 0.137524 
-85.00, 0.137484 
-90.00, 0.137445 
-95.00, 0.137404 
-100.00, 0.137364 
-105.00, 0.137326 
-110.00, 0.137285 
-115.00, 0.137248 
-120.00, 0.137209 
-125.00, 0.137172 
-130.00, 0.137136 
-135.00, 0.137099 
-140.00, 0.137064 
-145.00, 0.137030 
-150.00, 0.136994 
-155.00, 0.136962 
-160.00, 0.136929 
-165.00, 0.136896 
-170.00, 0.136865 
-175.00, 0.136835 
-180.00, 0.136803 
-185.00, 0.136774 
-190.00, 0.136746 
-195.00, 0.136717 
-200.00, 0.136689 
-205.00, 0.136663 
-210.00, 0.136635 
-215.00, 0.136611 
-220.00, 0.136584 
-225.00, 0.136560 
-230.00, 0.136537 
-235.00, 0.136513 
-240.00, 0.136491 
-245.00, 0.136469 
-250.00, 0.136447 
-255.00, 0.136427 
-260.00, 0.136407 
-265.00, 0.136386 
-270.00, 0.136367 
-275.00, 0.136349 
-280.00, 0.136329 
-285.00, 0.136312 
-290.00, 0.136293 
-295.00, 0.136274 
-300.00, 0.136264 
-305.00, 0.136245 
-310.00, 0.136226 
-315.00, 0.136208 
-320.00, 0.136199 
-325.00, 0.136181 
-330.00, 0.136165 
-335.00, 0.136156 
-340.00, 0.136140 
-345.00, 0.136124 
-350.00, 0.136117 
-355.00, 0.136102 
-360.00, 0.136087 
-365.00, 0.136080 
-370.00, 0.136066 
-375.00, 0.136053 
-380.00, 0.136040 
-385.00, 0.136033 
-390.00, 0.136021 
-395.00, 0.136008 
-400.00, 0.136001 
