#Magnetic Field (Oe),Voltage (V) 
-400.00, 0.541735 
-395.00, 0.541736 
-390.00, 0.541745 
-385.00, 0.541741 
-380.00, 0.541748 
-375.00, 0.541753 
-370.00, 0.541762 
-365.00, 0.541768 
-360.00, 0.541771 
-355.00, 0.541782 
-350.00, 0.541787 
-345.00, 0.541794 
-340.00, 0.541798 
-335.00, 0.541806 
-330.00, 0.541809 
-325.00, 0.541818 
-320.00, 0.541834 
-315.00, 0.541842 
-310.00, 0.541851 
-305.00, 0.541855 
-300.00, 0.541865 
-295.00, 0.541866 
-290.00, 0.541875 
-285.00, 0.541883 
-280.00, 0.541889 
-275.00, 0.541899 
-270.00, 0.541908 
-265.00, 0.541917 
-260.00, 0.541925 
-255.00, 0.541935 
-250.00, 0.541945 
-245.00, 0.541954 
-240.00, 0.541966 
-235.00, 0.541982 
-230.00, 0.541995 
-225.00, 0.542009 
-220.00, 0.542018 
-215.00, 0.542027 
-210.00, 0.542035 
-205.00, 0.542049 
-200.00, 0.542056 
-195.00, 0.542067 
-190.00, 0.542078 
-185.00, 0.542092 
-180.00, 0.542105 
-175.00, 0.542113 
-170.00, 0.542123 
-165.00, 0.542141 
-160.00, 0.542148 
-155.00, 0.542158 
-150.00, 0.542172 
-145.00, 0.542185 
-140.00, 0.542195 
-135.00, 0.542210 
-130.00, 0.542221 
-125.00, 0.542233 
-120.00, 0.542242 
-115.00, 0.542250 
-110.00, 0.542261 
-105.00, 0.542272 
-100.00, 0.542282 
-95.00, 0.542284 
-90.00, 0.542290 
-85.00, 0.542302 
-80.00, 0.542306 
-75.00, 0.542309 
-70.00, 0.542311 
-65.00, 0.542315 
-60.00, 0.542315 
-55.00, 0.542308 
-50.00, 0.542299 
-45.00, 0.542282 
-40.00, 0.542277 
-35.00, 0.542256 
-30.00, 0.542220 
-25.00, 0.542177 
-20.00, 0.542119 
-15.00, 0.542038 
-10.00, 0.541945 
-5.00, 0.541798 
-3.06E-14, 0.541620 
5.00, 0.541446 
10.00, 0.541463 
15.00, 0.542002 
20.00, 0.543645 
25.00, 0.544614 
30.00, 0.544994 
35.00, 0.545130 
40.00, 0.545215 
45.00, 0.545261 
50.00, 0.545287 
55.00, 0.545302 
60.00, 0.545303 
65.00, 0.545300 
70.00, 0.545289 
75.00, 0.545271 
80.00, 0.545251 
85.00, 0.545230 
90.00, 0.545213 
95.00, 0.545188 
100.00, 0.545156 
105.00, 0.545130 
110.00, 0.545096 
115.00, 0.545064 
120.00, 0.545033 
125.00, 0.544994 
130.00, 0.544960 
135.00, 0.544930 
140.00, 0.544894 
145.00, 0.544858 
150.00, 0.544819 
155.00, 0.544779 
160.00, 0.544744 
165.00, 0.544698 
170.00, 0.544656 
175.00, 0.544614 
180.00, 0.544572 
185.00, 0.544526 
190.00, 0.544486 
195.00, 0.544438 
200.00, 0.544395 
205.00, 0.544351 
210.00, 0.544300 
215.00, 0.544254 
220.00, 0.544206 
225.00, 0.544153 
230.00, 0.544107 
235.00, 0.544059 
240.00, 0.544008 
245.00, 0.543957 
250.00, 0.543903 
255.00, 0.543852 
260.00, 0.543797 
265.00, 0.543745 
270.00, 0.543690 
275.00, 0.543635 
280.00, 0.543589 
285.00, 0.543529 
290.00, 0.543476 
295.00, 0.543423 
300.00, 0.543372 
305.00, 0.543313 
310.00, 0.543280 
315.00, 0.543220 
320.00, 0.543159 
325.00, 0.543133 
330.00, 0.543072 
335.00, 0.543014 
340.00, 0.542963 
345.00, 0.542937 
350.00, 0.542880 
355.00, 0.542837 
360.00, 0.542813 
365.00, 0.542765 
370.00, 0.542717 
375.00, 0.542699 
380.00, 0.542652 
385.00, 0.542618 
390.00, 0.542599 
395.00, 0.542561 
400.00, 0.542523 
405.00, 0.542495 
405.00, 0.542489 
400.00, 0.542520 
395.00, 0.542557 
390.00, 0.542602 
385.00, 0.542616 
380.00, 0.542650 
375.00, 0.542695 
370.00, 0.542717 
365.00, 0.542757 
360.00, 0.542801 
355.00, 0.542821 
350.00, 0.542872 
345.00, 0.542915 
340.00, 0.542939 
335.00, 0.542989 
330.00, 0.543035 
325.00, 0.543094 
320.00, 0.543120 
315.00, 0.543171 
310.00, 0.543233 
305.00, 0.543266 
300.00, 0.543322 
295.00, 0.543379 
290.00, 0.543436 
285.00, 0.543483 
280.00, 0.543540 
275.00, 0.543583 
270.00, 0.543641 
265.00, 0.543695 
260.00, 0.543745 
255.00, 0.543794 
250.00, 0.543851 
245.00, 0.543899 
240.00, 0.543948 
235.00, 0.544004 
230.00, 0.544055 
225.00, 0.544099 
220.00, 0.544159 
215.00, 0.544202 
210.00, 0.544249 
205.00, 0.544301 
200.00, 0.544341 
195.00, 0.544395 
190.00, 0.544447 
185.00, 0.544491 
180.00, 0.544532 
175.00, 0.544573 
170.00, 0.544613 
165.00, 0.544664 
160.00, 0.544702 
155.00, 0.544736 
150.00, 0.544778 
145.00, 0.544814 
140.00, 0.544858 
135.00, 0.544892 
130.00, 0.544929 
125.00, 0.544968 
120.00, 0.544999 
115.00, 0.545038 
110.00, 0.545067 
105.00, 0.545100 
100.00, 0.545128 
95.00, 0.545154 
90.00, 0.545185 
85.00, 0.545208 
80.00, 0.545219 
75.00, 0.545246 
70.00, 0.545259 
65.00, 0.545274 
60.00, 0.545274 
55.00, 0.545276 
50.00, 0.545264 
45.00, 0.545244 
40.00, 0.545201 
35.00, 0.545125 
30.00, 0.545017 
25.00, 0.544800 
20.00, 0.544371 
15.00, 0.543201 
10.00, 0.542181 
5.00, 0.541920 
-3.06E-14, 0.541726 
-5.00, 0.541862 
-10.00, 0.541971 
-15.00, 0.542088 
-20.00, 0.542167 
-25.00, 0.542213 
-30.00, 0.542245 
-35.00, 0.542276 
-40.00, 0.542291 
-45.00, 0.542304 
-50.00, 0.542310 
-55.00, 0.542322 
-60.00, 0.542326 
-65.00, 0.542335 
-70.00, 0.542333 
-75.00, 0.542331 
-80.00, 0.542325 
-85.00, 0.542315 
-90.00, 0.542308 
-95.00, 0.542305 
-100.00, 0.542293 
-105.00, 0.542287 
-110.00, 0.542274 
-115.00, 0.542263 
-120.00, 0.542250 
-125.00, 0.542240 
-130.00, 0.542227 
-135.00, 0.542212 
-140.00, 0.542196 
-145.00, 0.542189 
-150.00, 0.542178 
-155.00, 0.542172 
-160.00, 0.542160 
-165.00, 0.542148 
-170.00, 0.542138 
-175.00, 0.542122 
-180.00, 0.542114 
-185.00, 0.542103 
-190.00, 0.542088 
-195.00, 0.542081 
-200.00, 0.542066 
-205.00, 0.542054 
-210.00, 0.542041 
-215.00, 0.542031 
-220.00, 0.542015 
-225.00, 0.542012 
-230.00, 0.542001 
-235.00, 0.541988 
-240.00, 0.541980 
-245.00, 0.541972 
-250.00, 0.541962 
-255.00, 0.541946 
-260.00, 0.541939 
-265.00, 0.541929 
-270.00, 0.541926 
-275.00, 0.541910 
-280.00, 0.541901 
-285.00, 0.541892 
-290.00, 0.541877 
-295.00, 0.541866 
-300.00, 0.541863 
-305.00, 0.541857 
-310.00, 0.541844 
-315.00, 0.541832 
-320.00, 0.541830 
-325.00, 0.541825 
-330.00, 0.541814 
-335.00, 0.541803 
-340.00, 0.541791 
-345.00, 0.541780 
-350.00, 0.541775 
-355.00, 0.541772 
-360.00, 0.541766 
-365.00, 0.541761 
-370.00, 0.541747 
-375.00, 0.541745 
-380.00, 0.541735 
-385.00, 0.541735 
-390.00, 0.541725 
-395.00, 0.541720 
-400.00, 0.541716 
